  STEP   TOTAL TIME             LOCATION OF OBSERVATION POINTS (K,I,J)
                      7  99  35    13  99  35    19  99  35    25  99  35    35  99  35     7  69  35    13  69  35    19  69  35    25  69  35    35  69  35     7  41  33    13  41  33    19  41  33    25  41  33    35  41  33     7  78  36
                     13  78  36    19  78  36    25  78  36    35  78  36     7  60  37    13  60  37    19  60  37    25  60  37    35  60  37    35  60  42
     1   1.00135E-02    0.0000        0.0000        0.0000        0.0000        0.0000       2.64472E-14   1.91963E-15   2.86821E-13   1.65524E-13   1.95139E-11   8.20184E-09   8.32120E-12   3.61123E-10   4.53535E-10   1.18641E-08    0.0000    
                        0.0000        0.0000        0.0000        0.0000        0.0000        0.0000        0.0000        0.0000        0.0000        0.0000    
     2   2.00270E-02   6.90453E-19   1.64082E-19   1.92494E-18   2.30046E-16   6.43011E-17   2.16230E-12   1.86662E-13   2.08403E-11   2.06357E-11   2.78464E-09   2.40590E-06   4.07480E-10   2.14540E-08   3.15785E-08   1.62830E-06   4.23572E-21
                       4.97520E-18   1.63083E-14   8.96236E-14   3.57376E-12   1.54762E-23   2.86863E-23   9.19813E-16   1.30916E-16   1.98726E-13   2.49637E-29
     3   3.00405E-02   1.85854E-17   1.51860E-17   1.84948E-16   1.68318E-14   2.64804E-15   1.12980E-10   9.71722E-12   5.25636E-10   1.00267E-09   1.58358E-07   1.03427E-04   7.94716E-09   8.03758E-07   4.45626E-07   5.29417E-05   3.23343E-19
                       4.88950E-16   8.71638E-13   4.39923E-12   1.86905E-10   1.88543E-21   3.26629E-21   1.14382E-13   6.08301E-14   1.42235E-11   5.91159E-25
     4   4.00539E-02   2.90872E-16   6.03030E-16   2.22993E-15   2.90224E-13   2.07453E-14   3.58689E-09   1.93617E-10   7.00334E-09   1.83451E-08   5.51410E-06   2.13197E-04   2.55654E-07   1.24644E-05   1.76596E-06   6.49215E-04   1.11261E-17
                       1.79186E-14   2.37874E-11   1.10194E-10   4.87885E-09   9.47699E-20   2.03466E-19   3.84004E-12   3.50511E-12   4.86229E-10   7.95764E-23
     5   4.16667E-02   3.59383E-16   9.28362E-16   2.78512E-15   3.43093E-13   2.53502E-14   9.08715E-09   3.33221E-10   7.39525E-09   3.01804E-08   5.62172E-06   2.29875E-04   2.69802E-07   1.35287E-05   1.99690E-06   6.70491E-04   3.06814E-17
                       5.10999E-14   6.36624E-11   2.91984E-10   1.27342E-08   2.92407E-19   6.62863E-19   1.09435E-11   1.16878E-11   1.43730E-09   3.35530E-22
     1   5.16802E-02   3.55080E-15   1.39189E-14   2.66518E-14   2.90703E-12   1.53591E-13   4.86476E-08   1.62334E-09   1.98247E-08   2.25171E-07   1.16398E-05   8.12822E-04   4.88907E-07   7.71848E-05   5.15792E-05   9.99327E-04   4.35350E-16
                       6.56531E-13   9.49761E-10   3.80454E-09   1.31407E-07   5.53797E-18   1.65344E-17   1.70326E-10   1.65114E-10   2.20537E-08   1.66470E-20
     2   6.16937E-02   1.63717E-14   8.43392E-14   1.56558E-13   1.15092E-11   1.73763E-12   1.66143E-07   2.51632E-08   1.01991E-06   2.88699E-06   4.99728E-05   1.11203E-03   2.88604E-06   1.44882E-04   1.69483E-04   1.66803E-02   3.59282E-15
                       4.86691E-12   8.73179E-09   2.40260E-08   5.81319E-07   5.94087E-17   2.35310E-16   1.55027E-09   8.98767E-10   1.53314E-07   5.10375E-19
     3   7.17072E-02   6.46174E-14   3.20046E-13   5.85991E-13   5.90233E-11   9.39365E-12   4.41559E-07   3.88008E-07   1.61274E-06   3.39542E-06   1.47938E-04   1.39458E-03   1.37712E-05   2.52740E-03   3.52649E-03   2.68875E-02   2.01804E-14
                       3.45689E-11   3.71035E-08   4.86712E-08   1.05963E-06   4.10729E-16   2.04224E-15   5.14641E-09   3.51105E-09   3.48680E-07   1.07030E-17
     4   8.17207E-02   2.25512E-13   9.08705E-13   1.63146E-12   2.20960E-10   1.19241E-10   7.58409E-07   7.49815E-07   2.84112E-06   3.68344E-06   1.53224E-04   1.72370E-03   2.59868E-05   2.64909E-03   1.05584E-02   4.27464E-02   8.52195E-14
                       2.07121E-10   1.09980E-07   8.24598E-08   1.72624E-06   2.38062E-15   1.12035E-14   1.12973E-08   1.78031E-08   1.29640E-06   1.60324E-16
     5   9.17341E-02   5.87531E-13   2.18986E-12   9.27072E-12   5.58671E-10   4.97243E-10   1.96494E-06   3.65518E-06   3.67724E-05   6.68994E-06   2.64939E-04   6.78623E-03   2.73594E-05   2.98010E-03   1.08274E-02   5.66904E-02   2.38315E-13
                       6.37565E-10   3.71366E-07   1.34490E-07   3.08650E-06   1.17384E-14   4.72485E-14   3.83843E-08   5.38690E-08   1.91440E-06   1.72049E-15
     6   0.10175       1.30923E-12   4.63348E-12   2.90395E-11   1.14402E-09   1.12548E-09   2.04325E-06   3.73752E-06   3.85115E-05   1.02075E-05   4.17368E-04   7.21759E-03   2.91652E-05   1.15598E-02   1.97092E-02   8.35587E-02   6.60113E-13
                       1.44127E-09   6.86523E-07   3.12973E-07   4.76907E-06   3.98080E-14   2.12637E-13   1.10631E-07   9.55256E-08   3.40870E-06   1.31837E-14
     7   0.11176       2.99919E-12   8.99442E-12   6.63383E-11   2.07492E-09   2.36823E-09   2.21025E-06   3.84935E-06   4.09026E-05   1.54112E-05   5.08386E-03   7.97131E-03   3.16353E-05   1.64471E-02   2.00377E-02   0.14041       1.67419E-12
                       2.72345E-09   1.80695E-06   4.27224E-07   7.86680E-06   1.06556E-13   1.26358E-12   2.47078E-07   1.43651E-07   4.51785E-06   7.29837E-14
     8   0.12177       1.73921E-11   1.64163E-11   1.30783E-10   3.46142E-09   4.27328E-09   2.48319E-06   3.96431E-06   4.72098E-05   2.23050E-05   9.40671E-03   1.03838E-02   3.48054E-05   1.77326E-02   2.73347E-02   0.18829       7.77756E-12
                       4.48114E-09   3.05401E-06   8.93127E-07   1.28103E-05   2.47587E-13   5.79683E-12   6.49192E-07   2.07204E-07   3.27348E-05   3.08830E-13
     9   0.12500       2.83268E-11   1.96823E-11   1.54697E-10   3.94573E-09   4.95001E-09   2.57962E-06   4.00168E-06   5.04920E-05   3.88650E-05   9.74875E-03   1.14830E-02   3.59007E-05   1.78188E-02   3.53162E-02   0.19220       2.28185E-11
                       5.19925E-09   3.51489E-06   1.60671E-06   1.45911E-05   3.28064E-13   8.34166E-12   6.64799E-07   2.33027E-07   5.92638E-05   5.45197E-13
     1   0.13501       1.18713E-10   3.36522E-11   2.85664E-10   6.20620E-09   8.10883E-09   2.96938E-06   1.48350E-05   6.97451E-05   1.64250E-04   1.67816E-02   2.21088E-02   4.03515E-05   2.63711E-02   4.99341E-02   0.28094       9.69338E-11
                       7.67843E-09   3.61756E-06   2.15958E-06   1.86941E-04   6.43498E-13   1.74952E-11   7.82291E-07   3.45167E-07   6.63847E-05   1.74562E-12
     2   0.14503       2.69982E-10   5.61536E-11   5.03963E-10   1.07085E-08   1.26735E-08   3.07165E-05   2.45904E-05   9.00824E-05   1.68575E-02   2.16898E-02   2.27987E-02   2.51910E-04   3.81869E-02   5.06328E-02   0.32551       2.43409E-10
                       1.08575E-08   3.80311E-06   2.70268E-06   8.31365E-04   1.15812E-12   3.01909E-11   3.35347E-06   8.88865E-07   1.23830E-04   4.83473E-12
     3   0.15504       4.81845E-10   9.23322E-11   8.40996E-10   1.75248E-08   1.90472E-08   7.61014E-05   2.47215E-05   2.62539E-04   1.69709E-02   2.75609E-02   3.67793E-02   4.98504E-04   5.61465E-02   7.13917E-02   0.38124       3.94405E-10
                       1.47694E-08   9.70456E-06   3.27903E-06   1.07421E-03   1.97220E-12   4.66250E-11   4.93168E-06   1.45444E-06   1.43755E-04   1.21156E-11
     4   0.16505       7.54236E-10   1.48065E-10   1.33576E-09   2.88207E-08   3.00142E-08   9.20672E-05   2.49863E-05   3.00108E-04   3.89688E-02   4.08724E-02   3.93507E-02   5.65714E-04   7.48802E-02   7.25752E-02   0.44344       5.91694E-10
                       1.94374E-08   9.69171E-06   7.31985E-06   1.15437E-03   3.41382E-12   6.70922E-11   9.04105E-06   2.20632E-06   1.65558E-04   2.94264E-11
     5   0.17507       1.08718E-09   2.36486E-10   2.02990E-09   4.66206E-08   4.52449E-08   1.43462E-04   4.69213E-05   3.39678E-04   6.46965E-02   5.31744E-02   7.21532E-02   6.35531E-04   7.58050E-02   9.86643E-02   0.50509       1.51737E-09
                       2.48615E-08   1.05276E-05   8.81762E-06   1.31969E-03   6.14863E-12   9.19815E-11   1.17650E-05   3.59939E-06   2.45928E-04   7.17926E-11
     6   0.18508       1.48094E-09   3.74710E-10   3.00953E-09   7.43535E-08   7.25661E-08   1.62048E-04   6.58818E-05   1.86473E-03   6.45395E-02   7.06245E-02   8.06190E-02   1.27899E-03   0.11412       0.10818       0.57162       2.48430E-09
                       3.04114E-08   1.15028E-05   4.62171E-05   1.42405E-03   1.11506E-11   1.22468E-10   1.84232E-05   5.27232E-06   3.98090E-04   1.67668E-10
     7   0.19509       1.93654E-09   1.54084E-09   4.36456E-09   1.16617E-07   1.10413E-07   1.82054E-04   6.65060E-05   3.26822E-03   6.88790E-02   9.03252E-02   0.11759       2.06240E-03   0.12148       0.13776       0.64315       4.20683E-09
                       3.61154E-08   1.26548E-05   4.98172E-05   2.65360E-03   1.97048E-11   1.64912E-10   2.17469E-05   7.27409E-06   5.56528E-04   3.58337E-10
     8   0.20511       2.45551E-09   4.46990E-09   6.20061E-09   1.76701E-07   1.53468E-07   2.03479E-04   6.71655E-05   3.30934E-03   7.60583E-02   9.97944E-02   0.12746       2.21504E-03   0.15432       0.14727       0.72615       5.95456E-09
                       4.23262E-08   1.42008E-05   1.27766E-04   3.75124E-03   3.34128E-11   2.19782E-10   3.53846E-05   7.60270E-06   7.08946E-04   6.97269E-10
     9   0.20833       2.63230E-09   5.38291E-09   6.84062E-09   1.96655E-07   1.68553E-07   2.10527E-04   6.73816E-05   3.52296E-03   7.59996E-02   0.10858       0.13064       2.27938E-03   0.15688       0.15035       0.75369       6.52721E-09
                       4.44674E-08   1.47267E-05   1.74474E-04   4.05231E-03   3.99281E-11   2.41348E-10   3.65419E-05   7.76341E-06   7.71591E-04   8.72761E-10
     1   0.21835       9.04211E-09   1.59849E-08   4.40858E-08   1.43610E-06   7.55834E-07   2.29461E-04   6.78919E-05   3.35585E-03   7.58978E-02   0.11086       0.13718       2.36499E-03   0.16292       0.15742       0.81043       6.59252E-09
                       4.46922E-08   1.59436E-05   1.71488E-04   4.41986E-03   4.13000E-11   2.50091E-10   3.11057E-05   7.97129E-06   5.90624E-04   8.83681E-10
     2   0.22837       1.55596E-08   2.65231E-08   1.00377E-07   3.60823E-06   1.80712E-06   2.48991E-04   6.84200E-05   2.02934E-03   6.84371E-02   0.10886       0.14373       2.45219E-03   0.13706       0.14326       0.84681       6.65815E-09
                       4.49387E-08   1.71026E-05   1.74606E-04   4.05736E-03   4.26895E-11   2.58912E-10   3.29201E-05   8.07265E-06   7.26308E-04   8.94543E-10
     3   0.23839       2.21912E-08   3.70770E-08   1.86402E-07   6.74058E-06   5.89432E-06   2.69123E-04   6.87523E-05   2.06959E-03   6.83511E-02   0.11425       0.11285       5.38341E-03   0.13822       0.14936       0.89518       6.72408E-09
                       4.51976E-08   1.83214E-05   1.76915E-04   4.15447E-03   4.40965E-11   2.67812E-10   3.44148E-05   8.18119E-06   6.43616E-04   9.05346E-10
     4   0.24841       2.89438E-08   4.82564E-08   3.35733E-07   8.85730E-06   1.06568E-05   2.89354E-04   6.90823E-05   6.27039E-04   6.82425E-02   0.11865       0.11505       5.46348E-03   0.13933       0.17090       0.93920       6.78968E-09
                       4.54690E-08   1.95997E-05   1.79121E-04   3.65702E-03   4.55214E-11   2.76793E-10   3.62542E-05   8.29724E-06   6.78396E-04   9.16085E-10
     5   0.25000       3.00450E-08   5.01096E-08   3.64647E-07   9.18006E-06   1.14306E-05   2.92567E-04   6.91350E-05   6.33628E-04   6.82254E-02   0.11551       0.11540       5.47591E-03   0.13951       0.15574       0.91488       6.80006E-09
                       4.55136E-08   1.98041E-05   1.79476E-04   3.66689E-03   4.57467E-11   2.78213E-10   3.65465E-05   8.31582E-06   6.83935E-04   9.17778E-10
     1   0.87193       3.60919E-07   5.39863E-07   1.80117E-05   2.39439E-04   2.31491E-04   2.13448E-03   1.06790E-04   1.48526E-02   8.85495E-02   0.78235       0.23011       7.72529E-03   0.36933       0.93354        11.301       4.76111E-08
                       2.13746E-07   2.08238E-04   8.51605E-04   2.53506E-02   9.51468E-10   1.97244E-09   2.16765E-04   5.61456E-05   1.36394E-02   1.94243E-08
     2    1.4939       3.29813E-06   2.64127E-06   2.79038E-04   1.54966E-03   3.35046E-03   3.49013E-03   4.32822E-04   2.35199E-02   0.12324        3.1483       0.25523       1.12627E-02   0.64930        2.0026        13.793       1.68791E-07
                       1.45930E-06   1.08855E-03   2.98297E-03   0.47282       1.53961E-08   1.35219E-08   1.28916E-03   4.30439E-04   7.72140E-02   2.48183E-07
     3    2.1158       1.01962E-05   8.36343E-06   1.53063E-03   8.89914E-03   1.65524E-02   7.43396E-03   7.05699E-04   4.20083E-02   0.28700        5.5246        1.0812       1.99272E-02    1.0249        2.6551        14.296       3.89665E-07
                       6.89090E-06   5.54544E-03   1.10422E-02   0.97707       1.59763E-07   1.01421E-07   1.39884E-02   1.69940E-03   0.38172       3.06319E-06
     4    2.7377       1.82628E-05   1.16373E-05   5.98920E-03   3.31078E-02   0.13452       9.81865E-03   1.78597E-03   9.84869E-02   0.71017        11.834        1.1627       4.96151E-02    5.3716        4.0301        14.805       9.70755E-07
                       3.10051E-05   1.22038E-02   3.59815E-02    2.9227       7.70785E-07   4.26760E-07   2.67362E-02   1.63536E-02    1.6540       3.58800E-05
     5    3.3596       4.95544E-05   2.70535E-05   1.92829E-02   0.11552       0.35819       2.45039E-02   2.06220E-03   0.25586        1.2639        12.279        1.2615       7.34780E-02    8.7965        6.9773        16.219       2.10045E-06
                       6.25136E-05   2.36417E-02   6.76901E-02    10.451       2.06665E-06   1.78977E-06   4.52534E-02   2.69551E-02    4.4395       1.34716E-04
     6    3.9816       1.05408E-04   3.95117E-05   6.91300E-02   0.37237        1.3038       3.37332E-02   3.22422E-03   0.70171        2.1778        14.720        1.2371       9.48575E-02    11.481        11.009        16.113       1.79741E-05
                       8.76042E-05   4.56999E-02   0.27603        12.592       4.32239E-06   4.55460E-06   0.19321       5.02607E-02    9.8118       1.08365E-03
     7    4.6035       1.33305E-04   7.14027E-05   0.17903       0.76962        3.0865       5.83403E-02   7.40845E-03    1.9343        2.6220        15.225        2.5485       0.17860        13.418        12.744        16.138       3.18756E-05
                       1.15821E-04   0.28468       0.64218        13.725       9.18502E-06   1.08039E-05   0.44180       0.11017        12.391       6.91900E-03
     8    5.2254       2.13141E-04   4.54736E-04   0.37694        1.9753        5.8969       6.13887E-02   1.01210E-02    2.8601        3.7170        15.525        4.5776       0.79495        13.264        12.660        15.352       5.45136E-05
                       1.92929E-04   0.45072        1.2277        15.377       1.21332E-05   1.38229E-05   0.93526       0.18810        13.399       3.80843E-02
     9    5.8473       3.03678E-04   1.11167E-03    1.1647        3.2928        9.8131       0.13072       1.77008E-02    3.2254        4.3635        15.360        5.8696        1.4852        13.759        13.923        14.756       7.58960E-05
                       1.12011E-03   0.59412        1.8019        15.821       1.43925E-05   2.20948E-05    1.3724       0.52131        14.975       0.10179    
    10    6.4693       4.43522E-04   2.49532E-03    2.1984        4.3299        12.105       0.14023       2.04578E-02    3.6276        8.4588        14.690        7.7402        2.3704        14.120        14.668        13.674       9.25283E-05
                       1.53692E-03    1.0845        2.1307        16.032       2.64769E-05   3.76792E-05    2.6756        1.2080        15.661       0.37194    
    11    7.0912       8.26773E-04   2.78999E-03    5.0859        10.254        13.310       0.18409       3.51406E-02    4.1298        11.108        13.060        9.0665        3.1165        14.360        14.742        9.3496       1.17705E-04
                       2.82921E-03    1.4081        7.4138        15.991       4.20840E-05   5.12807E-05    5.3988        2.7933        15.842        1.3906    
    12    7.7131       1.05324E-03   6.01956E-03    9.2603        12.007        14.443       0.24014       5.20876E-02    4.5362        11.372        12.502        8.7179        3.0624        14.797        14.648        8.1094       1.64160E-04
                       6.01315E-03    1.6095        11.229        15.654       8.20997E-05   7.82436E-05    7.5259        4.3805        15.677        2.9474    
    13    8.3350       1.62850E-03   7.87446E-03    12.280        13.116        15.084       0.26596       7.09398E-02    7.8581        10.704        11.083        9.3217        3.2178        15.085        14.429        5.6103       2.28111E-04
                       7.63543E-03    3.0463        12.488        15.150       1.01104E-04   1.75194E-04    9.0091        4.5836        15.412        5.2738    
    14    8.9570       2.68208E-03   9.62801E-03    12.341        13.808        14.986       0.31715       0.11243        10.009        11.109        7.2349        10.884        3.2615        15.342        13.015        1.6387       3.11926E-04
                       9.24767E-03    7.6418        13.478        13.432       1.76243E-04   1.89329E-04    9.8432        5.8900        14.046        8.1103    
    15    9.5789       4.58489E-03   1.10870E-02    13.296        14.206        15.150       0.69455       0.16430        9.5366        10.247        3.4191        10.643        3.3107        14.921        12.455        1.4621       3.25181E-04
                       1.09151E-02    11.132        13.727        11.518       5.30757E-04   7.00075E-04    11.553        8.1032        12.893        11.248    
    16    10.201       6.27105E-03   1.26435E-02    14.203        14.713        14.279        1.1283       0.24531        11.721        10.318        2.3673        10.631        3.4209        14.080        11.811       0.78782       3.53774E-04
                       1.77534E-02    12.549        14.115        9.1115       6.15253E-04   3.47073E-03    12.576        11.432        9.1537        12.443    
    17    10.823       8.98683E-03   1.59127E-02    14.675        15.080        12.805        1.4267       0.34625        12.637        9.2824        1.1304        10.986        4.2408        12.617        10.322       0.26840       5.07516E-04
                       2.00598E-02    12.237        15.051        4.3938       1.36369E-03   9.33918E-03    13.006        11.450        7.8797        14.413    
    18    11.445       1.19061E-02   1.81764E-02    14.848        14.960        11.286        1.9981       0.55586        13.577        8.5140       0.74397        10.514        5.3286        10.870        8.3492       0.17813       9.95719E-04
                       2.49445E-02    12.964        15.163        2.8329       1.79758E-03   1.10436E-02    13.636        11.889        3.9145        15.095    
    19    12.067       2.00825E-02   4.51812E-02    14.801        14.563        9.2586        2.8043       0.70899        12.973        5.1677       0.40820        13.926        6.6370        10.723        5.1762       7.05618E-02   1.36896E-03
                       3.91039E-02    13.764        15.403        1.7108       2.85883E-03   1.59070E-02    14.043        11.374        2.2732        15.233    
    20    12.689       3.96310E-02   0.12869        14.461        13.918        6.1635        2.9548       0.83352        12.794        4.1525       0.26393        13.595        7.7873        9.6233        3.5535       3.67784E-02   2.09724E-03
